;Scopy version,438f138
;Exported on,Thursday September 25/09/2025
;Device,M2K
;Nr of samples,1600
;Sample rate,10000
;Tool,Oscilloscope
;Additional Information,
Sample,Time(S),CH1(V),CH2(V)
0,-0.08,2.40534,-0.0597199
1,-0.0799,2.40534,-0.0597199
2,-0.0798,2.40534,-0.0597199
3,-0.0797,2.40534,-0.0597199
4,-0.0796,2.40534,-0.0597199
5,-0.0795,2.40534,-0.0597199
6,-0.0794,2.40534,-0.0597199
7,-0.0793,2.40534,-0.0597199
8,-0.0792,2.40534,-0.0597199
9,-0.0791,2.40534,-0.0597199
10,-0.079,2.40534,-0.0597199
11,-0.0789,2.40534,-0.0597199
12,-0.0788,2.40534,-0.0597199
13,-0.0787,2.40534,-0.0597199
14,-0.0786,2.40534,-0.0597199
15,-0.0785,2.40534,-0.0597199
16,-0.0784,2.40534,-0.0597199
17,-0.0783,2.40534,-0.0597199
18,-0.0782,2.40534,-0.0597199
19,-0.0781,2.40534,-0.0597199
20,-0.078,2.40534,-0.0597199
21,-0.0779,2.40534,-0.0597199
22,-0.0778,2.40534,-0.0597199
23,-0.0777,2.40534,-0.0597199
24,-0.0776,2.40534,-0.0597199
25,-0.0775,2.40534,-0.0597199
26,-0.0774,2.40534,-0.0597199
27,-0.0773,2.40534,-0.0597199
28,-0.0772,2.40534,-0.0597199
29,-0.0771,2.40534,-0.0597199
30,-0.077,2.40534,-0.0597199
31,-0.0769,2.40534,-0.0597199
32,-0.0768,2.40534,-0.0597199
33,-0.0767,2.40534,-0.0597199
34,-0.0766,2.40534,-0.0597199
35,-0.0765,2.40534,-0.0597199
36,-0.0764,2.40534,-0.0597199
37,-0.0763,2.40534,-0.0597199
38,-0.0762,2.40534,-0.0597199
39,-0.0761,2.40534,-0.0597199
40,-0.076,2.40534,-0.0597199
41,-0.0759,2.40534,-0.0597199
42,-0.0758,2.40534,-0.0597199
43,-0.0757,2.40534,-0.0597199
44,-0.0756,2.40534,-0.0597199
45,-0.0755,2.40534,-0.0597199
46,-0.0754,2.40534,-0.0597199
47,-0.0753,2.40534,-0.0597199
48,-0.0752,2.40534,-0.0597199
49,-0.0751,2.40534,-0.0597199
50,-0.075,2.40534,-0.0597199
51,-0.0749,2.35305,-0.0771499
52,-0.0748,1.18524,-1.2101
53,-0.0747,-2.87595,-3.58057
54,-0.0746,-2.54478,-1.94216
55,-0.0745,-2.56221,-1.19267
56,-0.0744,-2.56221,-0.739489
57,-0.0743,-2.56221,-0.460609
58,-0.0742,-2.56221,-0.303739
59,-0.0741,-2.56221,-0.19916
60,-0.074,-2.56221,-0.14687
61,-0.0739,-2.56221,-0.11201
62,-0.0738,-2.56221,-0.0771499
63,-0.0737,-2.56221,-0.0771499
64,-0.0736,-2.56221,-0.0771499
65,-0.0735,-2.56221,-0.0597199
66,-0.0734,-2.56221,-0.0597199
67,-0.0733,-2.56221,-0.0597199
68,-0.0732,-2.56221,-0.0597199
69,-0.0731,-2.56221,-0.0597199
70,-0.073,-2.56221,-0.0597199
71,-0.0729,-2.56221,-0.0597199
72,-0.0728,-2.56221,-0.0597199
73,-0.0727,-2.56221,-0.0597199
74,-0.0726,-2.56221,-0.0597199
75,-0.0725,-2.56221,-0.0597199
76,-0.0724,-2.56221,-0.0597199
77,-0.0723,-2.56221,-0.0597199
78,-0.0722,-2.56221,-0.0597199
79,-0.0721,-2.56221,-0.0597199
80,-0.072,-2.56221,-0.0597199
81,-0.0719,-2.56221,-0.0597199
82,-0.0718,-2.57964,-0.0597199
83,-0.0717,-2.57964,-0.0597199
84,-0.0716,-2.57964,-0.0597199
85,-0.0715,-2.57964,-0.0597199
86,-0.0714,-2.57964,-0.0597199
87,-0.0713,-2.56221,-0.0597199
88,-0.0712,-2.59707,-0.0597199
89,-0.0711,-2.57964,-0.0597199
90,-0.071,-2.57964,-0.0597199
91,-0.0709,-2.57964,-0.0597199
92,-0.0708,-2.57964,-0.0597199
93,-0.0707,-2.57964,-0.0597199
94,-0.0706,-2.57964,-0.0597199
95,-0.0705,-2.57964,-0.0597199
96,-0.0704,-2.57964,-0.0597199
97,-0.0703,-2.57964,-0.0597199
98,-0.0702,-2.57964,-0.0597199
99,-0.0701,-2.57964,-0.0597199
100,-0.07,-2.57964,-0.0597199
101,-0.0699,-2.57964,-0.0597199
102,-0.0698,-2.57964,-0.0597199
103,-0.0697,-2.57964,-0.0597199
104,-0.0696,-2.57964,-0.0597199
105,-0.0695,-2.57964,-0.0597199
106,-0.0694,-2.57964,-0.0597199
107,-0.0693,-2.57964,-0.0597199
108,-0.0692,-2.57964,-0.0597199
109,-0.0691,-2.57964,-0.0597199
110,-0.069,-2.57964,-0.0597199
111,-0.0689,-2.57964,-0.0597199
112,-0.0688,-2.57964,-0.0597199
113,-0.0687,-2.57964,-0.0597199
114,-0.0686,-2.57964,-0.0597199
115,-0.0685,-2.57964,-0.0597199
116,-0.0684,-2.57964,-0.0597199
117,-0.0683,-2.57964,-0.0597199
118,-0.0682,-2.57964,-0.0597199
119,-0.0681,-2.57964,-0.0597199
120,-0.068,-2.57964,-0.0597199
121,-0.0679,-2.57964,-0.0597199
122,-0.0678,-2.57964,-0.0597199
123,-0.0677,-2.57964,-0.0597199
124,-0.0676,-2.57964,-0.0597199
125,-0.0675,-2.57964,-0.0597199
126,-0.0674,-2.57964,-0.0597199
127,-0.0673,-2.57964,-0.0597199
128,-0.0672,-2.57964,-0.0597199
129,-0.0671,-2.57964,-0.0597199
130,-0.067,-2.57964,-0.0597199
131,-0.0669,-2.57964,-0.0597199
132,-0.0668,-2.57964,-0.0597199
133,-0.0667,-2.57964,-0.0597199
134,-0.0666,-2.57964,-0.0597199
135,-0.0665,-2.57964,-0.0597199
136,-0.0664,-2.57964,-0.0597199
137,-0.0663,-2.57964,-0.0597199
138,-0.0662,-2.57964,-0.0597199
139,-0.0661,-2.57964,-0.0597199
140,-0.066,-2.57964,-0.0597199
141,-0.0659,-2.57964,-0.0597199
142,-0.0658,-2.57964,-0.0597199
143,-0.0657,-2.57964,-0.0597199
144,-0.0656,-2.57964,-0.0597199
145,-0.0655,-2.57964,-0.0597199
146,-0.0654,-2.57964,-0.0597199
147,-0.0653,-2.57964,-0.0597199
148,-0.0652,-2.57964,-0.0597199
149,-0.0651,-2.57964,-0.0597199
150,-0.065,-2.57964,-0.0597199
151,-0.0649,-2.57964,-0.0597199
152,-0.0648,-2.57964,-0.0597199
153,-0.0647,-2.57964,-0.0597199
154,-0.0646,-2.57964,-0.0597199
155,-0.0645,-2.57964,-0.0597199
156,-0.0644,-2.57964,-0.0597199
157,-0.0643,-2.57964,-0.0597199
158,-0.0642,-2.57964,-0.0597199
159,-0.0641,-2.57964,-0.0597199
160,-0.064,-2.57964,-0.0597199
161,-0.0639,-2.57964,-0.0597199
162,-0.0638,-2.57964,-0.0597199
163,-0.0637,-2.57964,-0.0597199
164,-0.0636,-2.57964,-0.0597199
165,-0.0635,-2.57964,-0.0597199
166,-0.0634,-2.57964,-0.0597199
167,-0.0633,-2.57964,-0.0597199
168,-0.0632,-2.57964,-0.0597199
169,-0.0631,-2.57964,-0.0597199
170,-0.063,-2.57964,-0.0597199
171,-0.0629,-2.57964,-0.0597199
172,-0.0628,-2.57964,-0.0597199
173,-0.0627,-2.57964,-0.0597199
174,-0.0626,-2.57964,-0.0597199
175,-0.0625,-2.57964,-0.0597199
176,-0.0624,-2.57964,-0.0597199
177,-0.0623,-2.57964,-0.0597199
178,-0.0622,-2.57964,-0.0597199
179,-0.0621,-2.57964,-0.0597199
180,-0.062,-2.57964,-0.0597199
181,-0.0619,-2.57964,-0.0597199
182,-0.0618,-2.57964,-0.0597199
183,-0.0617,-2.57964,-0.0597199
184,-0.0616,-2.57964,-0.0597199
185,-0.0615,-2.57964,-0.0597199
186,-0.0614,-2.57964,-0.0597199
187,-0.0613,-2.57964,-0.0597199
188,-0.0612,-2.57964,-0.0597199
189,-0.0611,-2.57964,-0.0597199
190,-0.061,-2.57964,-0.0597199
191,-0.0609,-2.57964,-0.0597199
192,-0.0608,-2.57964,-0.0597199
193,-0.0607,-2.57964,-0.0597199
194,-0.0606,-2.57964,-0.0597199
195,-0.0605,-2.57964,-0.0597199
196,-0.0604,-2.57964,-0.0597199
197,-0.0603,-2.57964,-0.0597199
198,-0.0602,-2.57964,-0.0597199
199,-0.0601,-2.57964,-0.0597199
200,-0.06,-2.57964,-0.0597199
201,-0.0599,-2.57964,-0.0597199
202,-0.0598,-2.57964,-0.0597199
203,-0.0597,-2.57964,-0.0597199
204,-0.0596,-2.57964,-0.0597199
205,-0.0595,-2.57964,-0.0597199
206,-0.0594,-2.57964,-0.0597199
207,-0.0593,-2.57964,-0.0597199
208,-0.0592,-2.57964,-0.0597199
209,-0.0591,-2.57964,-0.0597199
210,-0.059,-2.57964,-0.0597199
211,-0.0589,-2.57964,-0.0597199
212,-0.0588,-2.57964,-0.0597199
213,-0.0587,-2.57964,-0.0597199
214,-0.0586,-2.57964,-0.0597199
215,-0.0585,-2.57964,-0.0597199
216,-0.0584,-2.57964,-0.0597199
217,-0.0583,-2.57964,-0.0597199
218,-0.0582,-2.57964,-0.0597199
219,-0.0581,-2.57964,-0.0597199
220,-0.058,-2.57964,-0.0597199
221,-0.0579,-2.57964,-0.0597199
222,-0.0578,-2.57964,-0.0597199
223,-0.0577,-2.57964,-0.0597199
224,-0.0576,-2.57964,-0.0597199
225,-0.0575,-2.57964,-0.0597199
226,-0.0574,-2.57964,-0.0597199
227,-0.0573,-2.57964,-0.0597199
228,-0.0572,-2.57964,-0.0597199
229,-0.0571,-2.57964,-0.0597199
230,-0.057,-2.57964,-0.0597199
231,-0.0569,-2.57964,-0.0597199
232,-0.0568,-2.57964,-0.0597199
233,-0.0567,-2.57964,-0.0597199
234,-0.0566,-2.57964,-0.0597199
235,-0.0565,-2.57964,-0.0597199
236,-0.0564,-2.57964,-0.0597199
237,-0.0563,-2.57964,-0.0597199
238,-0.0562,-2.57964,-0.0597199
239,-0.0561,-2.57964,-0.0597199
240,-0.056,-2.57964,-0.0597199
241,-0.0559,-2.57964,-0.0597199
242,-0.0558,-2.57964,-0.0597199
243,-0.0557,-2.57964,-0.0597199
244,-0.0556,-2.57964,-0.0597199
245,-0.0555,-2.57964,-0.0597199
246,-0.0554,-2.57964,-0.0597199
247,-0.0553,-2.57964,-0.0597199
248,-0.0552,-2.57964,-0.0597199
249,-0.0551,-2.57964,-0.0597199
250,-0.055,-2.57964,-0.0597199
251,-0.0549,-2.57964,-0.0597199
252,-0.0548,-2.57964,-0.0597199
253,-0.0547,-2.57964,-0.0597199
254,-0.0546,-2.57964,-0.0597199
255,-0.0545,-2.57964,-0.0597199
256,-0.0544,-2.57964,-0.0597199
257,-0.0543,-2.57964,-0.0597199
258,-0.0542,-2.57964,-0.0597199
259,-0.0541,-2.57964,-0.0597199
260,-0.054,-2.57964,-0.0597199
261,-0.0539,-2.57964,-0.0597199
262,-0.0538,-2.57964,-0.0597199
263,-0.0537,-2.57964,-0.0597199
264,-0.0536,-2.57964,-0.0597199
265,-0.0535,-2.57964,-0.0597199
266,-0.0534,-2.57964,-0.0597199
267,-0.0533,-2.57964,-0.0597199
268,-0.0532,-2.57964,-0.0597199
269,-0.0531,-2.57964,-0.0597199
270,-0.053,-2.57964,-0.0597199
271,-0.0529,-2.57964,-0.0597199
272,-0.0528,-2.57964,-0.0597199
273,-0.0527,-2.57964,-0.0597199
274,-0.0526,-2.57964,-0.0597199
275,-0.0525,-2.57964,-0.0597199
276,-0.0524,-2.57964,-0.0597199
277,-0.0523,-2.57964,-0.0597199
278,-0.0522,-2.57964,-0.0597199
279,-0.0521,-2.57964,-0.0597199
280,-0.052,-2.57964,-0.0597199
281,-0.0519,-2.57964,-0.0597199
282,-0.0518,-2.57964,-0.0597199
283,-0.0517,-2.57964,-0.0597199
284,-0.0516,-2.57964,-0.0597199
285,-0.0515,-2.57964,-0.0597199
286,-0.0514,-2.57964,-0.0597199
287,-0.0513,-2.57964,-0.0597199
288,-0.0512,-2.57964,-0.0597199
289,-0.0511,-2.57964,-0.0597199
290,-0.051,-2.57964,-0.0597199
291,-0.0509,-2.57964,-0.0597199
292,-0.0508,-2.57964,-0.0597199
293,-0.0507,-2.57964,-0.0597199
294,-0.0506,-2.57964,-0.0597199
295,-0.0505,-2.57964,-0.0597199
296,-0.0504,-2.57964,-0.0597199
297,-0.0503,-2.57964,-0.0597199
298,-0.0502,-2.57964,-0.0597199
299,-0.0501,-2.57964,-0.0597199
300,-0.05,-2.57964,-0.0422899
301,-0.0499,-2.52735,-0.0248599
302,-0.0498,-1.34211,1.14295
303,-0.0497,2.71908,3.47856
304,-0.0496,2.37048,1.85758
305,-0.0495,2.38791,1.12552
306,-0.0494,2.38791,0.654909
307,-0.0493,2.38791,0.393459
308,-0.0492,2.38791,0.21916
309,-0.0491,2.38791,0.11458
310,-0.049,2.38791,0.0448599
311,-0.0489,2.38791,0.0448599
312,-0.0488,2.38791,0.01
313,-0.0487,2.38791,0.01
314,-0.0486,2.38791,-0.0422899
315,-0.0485,2.38791,-0.0422899
316,-0.0484,2.38791,-0.0422899
317,-0.0483,2.38791,-0.0422899
318,-0.0482,2.38791,-0.0422899
319,-0.0481,2.38791,-0.0597199
320,-0.048,2.38791,-0.0597199
321,-0.0479,2.38791,-0.0597199
322,-0.0478,2.38791,-0.0597199
323,-0.0477,2.38791,-0.0597199
324,-0.0476,2.38791,-0.0597199
325,-0.0475,2.38791,-0.0597199
326,-0.0474,2.38791,-0.0597199
327,-0.0473,2.38791,-0.0597199
328,-0.0472,2.38791,-0.0597199
329,-0.0471,2.38791,-0.0597199
330,-0.047,2.38791,-0.0597199
331,-0.0469,2.38791,-0.0597199
332,-0.0468,2.38791,-0.0597199
333,-0.0467,2.38791,-0.0597199
334,-0.0466,2.38791,-0.0597199
335,-0.0465,2.38791,-0.0597199
336,-0.0464,2.38791,-0.0597199
337,-0.0463,2.40534,-0.0597199
338,-0.0462,2.40534,-0.0597199
339,-0.0461,2.38791,-0.0597199
340,-0.046,2.38791,-0.0597199
341,-0.0459,2.38791,-0.0597199
342,-0.0458,2.40534,-0.0597199
343,-0.0457,2.40534,-0.0597199
344,-0.0456,2.40534,-0.0597199
345,-0.0455,2.40534,-0.0597199
346,-0.0454,2.40534,-0.0597199
347,-0.0453,2.40534,-0.0597199
348,-0.0452,2.40534,-0.0597199
349,-0.0451,2.40534,-0.0597199
350,-0.045,2.40534,-0.0597199
351,-0.0449,2.40534,-0.0597199
352,-0.0448,2.40534,-0.0597199
353,-0.0447,2.40534,-0.0597199
354,-0.0446,2.40534,-0.0597199
355,-0.0445,2.40534,-0.0597199
356,-0.0444,2.42277,-0.0597199
357,-0.0443,2.38791,-0.0597199
358,-0.0442,2.40534,-0.0597199
359,-0.0441,2.40534,-0.0597199
360,-0.044,2.40534,-0.0597199
361,-0.0439,2.40534,-0.0597199
362,-0.0438,2.40534,-0.0597199
363,-0.0437,2.40534,-0.0597199
364,-0.0436,2.40534,-0.0597199
365,-0.0435,2.40534,-0.0597199
366,-0.0434,2.40534,-0.0597199
367,-0.0433,2.40534,-0.0597199
368,-0.0432,2.40534,-0.0597199
369,-0.0431,2.40534,-0.0597199
370,-0.043,2.40534,-0.0597199
371,-0.0429,2.40534,-0.0597199
372,-0.0428,2.40534,-0.0597199
373,-0.0427,2.40534,-0.0597199
374,-0.0426,2.40534,-0.0597199
375,-0.0425,2.40534,-0.0597199
376,-0.0424,2.40534,-0.0597199
377,-0.0423,2.40534,-0.0597199
378,-0.0422,2.40534,-0.0597199
379,-0.0421,2.40534,-0.0597199
380,-0.042,2.40534,-0.0597199
381,-0.0419,2.40534,-0.0597199
382,-0.0418,2.40534,-0.0597199
383,-0.0417,2.40534,-0.0597199
384,-0.0416,2.40534,-0.0597199
385,-0.0415,2.40534,-0.0597199
386,-0.0414,2.40534,-0.0597199
387,-0.0413,2.40534,-0.0597199
388,-0.0412,2.40534,-0.0597199
389,-0.0411,2.40534,-0.0597199
390,-0.041,2.40534,-0.0597199
391,-0.0409,2.40534,-0.0597199
392,-0.0408,2.40534,-0.0597199
393,-0.0407,2.40534,-0.0597199
394,-0.0406,2.40534,-0.0597199
395,-0.0405,2.40534,-0.0597199
396,-0.0404,2.40534,-0.0597199
397,-0.0403,2.40534,-0.0597199
398,-0.0402,2.40534,-0.0597199
399,-0.0401,2.40534,-0.0597199
400,-0.04,2.40534,-0.0597199
401,-0.0399,2.40534,-0.0597199
402,-0.0398,2.40534,-0.0597199
403,-0.0397,2.40534,-0.0597199
404,-0.0396,2.40534,-0.0597199
405,-0.0395,2.40534,-0.0597199
406,-0.0394,2.40534,-0.0597199
407,-0.0393,2.40534,-0.0597199
408,-0.0392,2.40534,-0.0597199
409,-0.0391,2.40534,-0.0597199
410,-0.039,2.40534,-0.0597199
411,-0.0389,2.40534,-0.0597199
412,-0.0388,2.40534,-0.0597199
413,-0.0387,2.40534,-0.0597199
414,-0.0386,2.40534,-0.0597199
415,-0.0385,2.40534,-0.0597199
416,-0.0384,2.40534,-0.0597199
417,-0.0383,2.40534,-0.0597199
418,-0.0382,2.40534,-0.0597199
419,-0.0381,2.40534,-0.0597199
420,-0.038,2.40534,-0.0597199
421,-0.0379,2.40534,-0.0597199
422,-0.0378,2.40534,-0.0597199
423,-0.0377,2.40534,-0.0597199
424,-0.0376,2.40534,-0.0597199
425,-0.0375,2.40534,-0.0597199
426,-0.0374,2.40534,-0.0597199
427,-0.0373,2.40534,-0.0597199
428,-0.0372,2.40534,-0.0597199
429,-0.0371,2.40534,-0.0597199
430,-0.037,2.40534,-0.0597199
431,-0.0369,2.40534,-0.0597199
432,-0.0368,2.40534,-0.0597199
433,-0.0367,2.40534,-0.0597199
434,-0.0366,2.40534,-0.0597199
435,-0.0365,2.40534,-0.0597199
436,-0.0364,2.40534,-0.0597199
437,-0.0363,2.40534,-0.0597199
438,-0.0362,2.40534,-0.0597199
439,-0.0361,2.40534,-0.0597199
440,-0.036,2.40534,-0.0597199
441,-0.0359,2.40534,-0.0597199
442,-0.0358,2.40534,-0.0597199
443,-0.0357,2.40534,-0.0597199
444,-0.0356,2.40534,-0.0597199
445,-0.0355,2.40534,-0.0597199
446,-0.0354,2.40534,-0.0597199
447,-0.0353,2.40534,-0.0597199
448,-0.0352,2.40534,-0.0597199
449,-0.0351,2.40534,-0.0597199
450,-0.035,2.40534,-0.0597199
451,-0.0349,2.40534,-0.0597199
452,-0.0348,2.40534,-0.0597199
453,-0.0347,2.40534,-0.0597199
454,-0.0346,2.40534,-0.0597199
455,-0.0345,2.40534,-0.0597199
456,-0.0344,2.40534,-0.0597199
457,-0.0343,2.40534,-0.0597199
458,-0.0342,2.40534,-0.0597199
459,-0.0341,2.40534,-0.0597199
460,-0.034,2.40534,-0.0597199
461,-0.0339,2.40534,-0.0597199
462,-0.0338,2.40534,-0.0597199
463,-0.0337,2.40534,-0.0597199
464,-0.0336,2.40534,-0.0597199
465,-0.0335,2.40534,-0.0597199
466,-0.0334,2.40534,-0.0597199
467,-0.0333,2.40534,-0.0597199
468,-0.0332,2.40534,-0.0597199
469,-0.0331,2.40534,-0.0597199
470,-0.033,2.40534,-0.0597199
471,-0.0329,2.40534,-0.0597199
472,-0.0328,2.40534,-0.0597199
473,-0.0327,2.40534,-0.0597199
474,-0.0326,2.40534,-0.0597199
475,-0.0325,2.40534,-0.0597199
476,-0.0324,2.40534,-0.0597199
477,-0.0323,2.40534,-0.0597199
478,-0.0322,2.40534,-0.0597199
479,-0.0321,2.40534,-0.0597199
480,-0.032,2.40534,-0.0597199
481,-0.0319,2.40534,-0.0597199
482,-0.0318,2.40534,-0.0597199
483,-0.0317,2.40534,-0.0597199
484,-0.0316,2.40534,-0.0597199
485,-0.0315,2.40534,-0.0597199
486,-0.0314,2.40534,-0.0597199
487,-0.0313,2.40534,-0.0597199
488,-0.0312,2.40534,-0.0597199
489,-0.0311,2.40534,-0.0597199
490,-0.031,2.40534,-0.0597199
491,-0.0309,2.40534,-0.0597199
492,-0.0308,2.40534,-0.0597199
493,-0.0307,2.40534,-0.0597199
494,-0.0306,2.40534,-0.0597199
495,-0.0305,2.40534,-0.0597199
496,-0.0304,2.40534,-0.0597199
497,-0.0303,2.40534,-0.0597199
498,-0.0302,2.40534,-0.0597199
499,-0.0301,2.40534,-0.0597199
500,-0.03,2.40534,-0.0597199
501,-0.0299,2.40534,-0.0597199
502,-0.0298,2.40534,-0.0597199
503,-0.0297,2.40534,-0.0597199
504,-0.0296,2.40534,-0.0597199
505,-0.0295,2.40534,-0.0597199
506,-0.0294,2.40534,-0.0597199
507,-0.0293,2.40534,-0.0597199
508,-0.0292,2.40534,-0.0597199
509,-0.0291,2.40534,-0.0597199
510,-0.029,2.40534,-0.0597199
511,-0.0289,2.40534,-0.0597199
512,-0.0288,2.40534,-0.0597199
513,-0.0287,2.40534,-0.0597199
514,-0.0286,2.40534,-0.0597199
515,-0.0285,2.40534,-0.0597199
516,-0.0284,2.40534,-0.0597199
517,-0.0283,2.40534,-0.0597199
518,-0.0282,2.40534,-0.0597199
519,-0.0281,2.40534,-0.0597199
520,-0.028,2.40534,-0.0597199
521,-0.0279,2.40534,-0.0597199
522,-0.0278,2.40534,-0.0597199
523,-0.0277,2.40534,-0.0597199
524,-0.0276,2.40534,-0.0597199
525,-0.0275,2.40534,-0.0597199
526,-0.0274,2.40534,-0.0597199
527,-0.0273,2.40534,-0.0597199
528,-0.0272,2.40534,-0.0597199
529,-0.0271,2.40534,-0.0597199
530,-0.027,2.40534,-0.0597199
531,-0.0269,2.40534,-0.0597199
532,-0.0268,2.40534,-0.0597199
533,-0.0267,2.40534,-0.0597199
534,-0.0266,2.40534,-0.0597199
535,-0.0265,2.40534,-0.0597199
536,-0.0264,2.40534,-0.0597199
537,-0.0263,2.40534,-0.0597199
538,-0.0262,2.40534,-0.0597199
539,-0.0261,2.40534,-0.0597199
540,-0.026,2.40534,-0.0597199
541,-0.0259,2.40534,-0.0597199
542,-0.0258,2.40534,-0.0597199
543,-0.0257,2.40534,-0.0597199
544,-0.0256,2.40534,-0.0597199
545,-0.0255,2.40534,-0.0597199
546,-0.0254,2.40534,-0.0597199
547,-0.0253,2.40534,-0.0597199
548,-0.0252,2.40534,-0.0597199
549,-0.0251,2.40534,-0.0597199
550,-0.025,2.40534,-0.0597199
551,-0.0249,2.35305,-0.0771499
552,-0.0248,1.18524,-1.2101
553,-0.0247,-2.87595,-3.58057
554,-0.0246,-2.54478,-1.94216
555,-0.0245,-2.56221,-1.2101
556,-0.0244,-2.54478,-0.739489
557,-0.0243,-2.57964,-0.460609
558,-0.0242,-2.56221,-0.321169
559,-0.0241,-2.56221,-0.19916
560,-0.024,-2.56221,-0.14687
561,-0.0239,-2.56221,-0.11201
562,-0.0238,-2.56221,-0.0945798
563,-0.0237,-2.56221,-0.0597199
564,-0.0236,-2.56221,-0.0597199
565,-0.0235,-2.56221,-0.0597199
566,-0.0234,-2.56221,-0.0597199
567,-0.0233,-2.56221,-0.0597199
568,-0.0232,-2.56221,-0.0597199
569,-0.0231,-2.56221,-0.0597199
570,-0.023,-2.56221,-0.0597199
571,-0.0229,-2.56221,-0.0597199
572,-0.0228,-2.56221,-0.0597199
573,-0.0227,-2.56221,-0.0597199
574,-0.0226,-2.56221,-0.0597199
575,-0.0225,-2.56221,-0.0597199
576,-0.0224,-2.56221,-0.0597199
577,-0.0223,-2.56221,-0.0597199
578,-0.0222,-2.56221,-0.0597199
579,-0.0221,-2.56221,-0.0597199
580,-0.022,-2.56221,-0.0597199
581,-0.0219,-2.56221,-0.0597199
582,-0.0218,-2.56221,-0.0597199
583,-0.0217,-2.56221,-0.0597199
584,-0.0216,-2.56221,-0.0597199
585,-0.0215,-2.56221,-0.0597199
586,-0.0214,-2.56221,-0.0597199
587,-0.0213,-2.56221,-0.0597199
588,-0.0212,-2.56221,-0.0597199
589,-0.0211,-2.56221,-0.0597199
590,-0.021,-2.59707,-0.0597199
591,-0.0209,-2.57964,-0.0597199
592,-0.0208,-2.57964,-0.0597199
593,-0.0207,-2.57964,-0.0597199
594,-0.0206,-2.56221,-0.0597199
595,-0.0205,-2.59707,-0.0597199
596,-0.0204,-2.57964,-0.0597199
597,-0.0203,-2.57964,-0.0597199
598,-0.0202,-2.57964,-0.0597199
599,-0.0201,-2.57964,-0.0597199
600,-0.02,-2.57964,-0.0597199
601,-0.0199,-2.57964,-0.0597199
602,-0.0198,-2.57964,-0.0597199
603,-0.0197,-2.57964,-0.0597199
604,-0.0196,-2.57964,-0.0597199
605,-0.0195,-2.57964,-0.0597199
606,-0.0194,-2.57964,-0.0597199
607,-0.0193,-2.57964,-0.0597199
608,-0.0192,-2.57964,-0.0597199
609,-0.0191,-2.57964,-0.0597199
610,-0.019,-2.57964,-0.0597199
611,-0.0189,-2.57964,-0.0597199
612,-0.0188,-2.57964,-0.0597199
613,-0.0187,-2.57964,-0.0597199
614,-0.0186,-2.57964,-0.0597199
615,-0.0185,-2.57964,-0.0597199
616,-0.0184,-2.57964,-0.0597199
617,-0.0183,-2.57964,-0.0597199
618,-0.0182,-2.57964,-0.0597199
619,-0.0181,-2.57964,-0.0597199
620,-0.018,-2.57964,-0.0597199
621,-0.0179,-2.57964,-0.0597199
622,-0.0178,-2.57964,-0.0597199
623,-0.0177,-2.57964,-0.0597199
624,-0.0176,-2.57964,-0.0597199
625,-0.0175,-2.57964,-0.0597199
626,-0.0174,-2.57964,-0.0597199
627,-0.0173,-2.57964,-0.0597199
628,-0.0172,-2.57964,-0.0597199
629,-0.0171,-2.57964,-0.0597199
630,-0.017,-2.57964,-0.0597199
631,-0.0169,-2.57964,-0.0597199
632,-0.0168,-2.57964,-0.0597199
633,-0.0167,-2.57964,-0.0597199
634,-0.0166,-2.57964,-0.0597199
635,-0.0165,-2.57964,-0.0597199
636,-0.0164,-2.57964,-0.0597199
637,-0.0163,-2.57964,-0.0597199
638,-0.0162,-2.57964,-0.0597199
639,-0.0161,-2.57964,-0.0597199
640,-0.016,-2.57964,-0.0597199
641,-0.0159,-2.57964,-0.0597199
642,-0.0158,-2.57964,-0.0597199
643,-0.0157,-2.57964,-0.0597199
644,-0.0156,-2.57964,-0.0597199
645,-0.0155,-2.57964,-0.0597199
646,-0.0154,-2.57964,-0.0597199
647,-0.0153,-2.57964,-0.0597199
648,-0.0152,-2.57964,-0.0597199
649,-0.0151,-2.57964,-0.0597199
650,-0.015,-2.57964,-0.0597199
651,-0.0149,-2.57964,-0.0597199
652,-0.0148,-2.57964,-0.0597199
653,-0.0147,-2.57964,-0.0597199
654,-0.0146,-2.57964,-0.0597199
655,-0.0145,-2.57964,-0.0597199
656,-0.0144,-2.57964,-0.0597199
657,-0.0143,-2.57964,-0.0597199
658,-0.0142,-2.57964,-0.0597199
659,-0.0141,-2.57964,-0.0597199
660,-0.014,-2.57964,-0.0597199
661,-0.0139,-2.57964,-0.0597199
662,-0.0138,-2.57964,-0.0597199
663,-0.0137,-2.57964,-0.0597199
664,-0.0136,-2.57964,-0.0597199
665,-0.0135,-2.57964,-0.0597199
666,-0.0134,-2.57964,-0.0597199
667,-0.0133,-2.57964,-0.0597199
668,-0.0132,-2.57964,-0.0597199
669,-0.0131,-2.57964,-0.0597199
670,-0.013,-2.57964,-0.0597199
671,-0.0129,-2.57964,-0.0597199
672,-0.0128,-2.57964,-0.0597199
673,-0.0127,-2.57964,-0.0597199
674,-0.0126,-2.57964,-0.0597199
675,-0.0125,-2.57964,-0.0597199
676,-0.0124,-2.57964,-0.0597199
677,-0.0123,-2.57964,-0.0597199
678,-0.0122,-2.57964,-0.0597199
679,-0.0121,-2.57964,-0.0597199
680,-0.012,-2.57964,-0.0597199
681,-0.0119,-2.57964,-0.0597199
682,-0.0118,-2.57964,-0.0597199
683,-0.0117,-2.57964,-0.0597199
684,-0.0116,-2.57964,-0.0597199
685,-0.0115,-2.57964,-0.0597199
686,-0.0114,-2.57964,-0.0597199
687,-0.0113,-2.57964,-0.0597199
688,-0.0112,-2.57964,-0.0597199
689,-0.0111,-2.57964,-0.0597199
690,-0.011,-2.57964,-0.0597199
691,-0.0109,-2.57964,-0.0597199
692,-0.0108,-2.57964,-0.0597199
693,-0.0107,-2.57964,-0.0597199
694,-0.0106,-2.57964,-0.0597199
695,-0.0105,-2.57964,-0.0597199
696,-0.0104,-2.57964,-0.0597199
697,-0.0103,-2.57964,-0.0597199
698,-0.0102,-2.57964,-0.0597199
699,-0.0101,-2.57964,-0.0597199
700,-0.01,-2.57964,-0.0597199
701,-0.0099,-2.57964,-0.0597199
702,-0.0098,-2.57964,-0.0597199
703,-0.0097,-2.57964,-0.0597199
704,-0.0096,-2.57964,-0.0597199
705,-0.0095,-2.57964,-0.0597199
706,-0.0094,-2.57964,-0.0597199
707,-0.0093,-2.57964,-0.0597199
708,-0.0092,-2.57964,-0.0597199
709,-0.0091,-2.57964,-0.0597199
710,-0.009,-2.57964,-0.0597199
711,-0.0089,-2.57964,-0.0597199
712,-0.0088,-2.57964,-0.0597199
713,-0.0087,-2.57964,-0.0597199
714,-0.0086,-2.57964,-0.0597199
715,-0.0085,-2.57964,-0.0597199
716,-0.0084,-2.57964,-0.0597199
717,-0.0083,-2.57964,-0.0597199
718,-0.0082,-2.57964,-0.0597199
719,-0.0081,-2.57964,-0.0597199
720,-0.008,-2.57964,-0.0597199
721,-0.0079,-2.57964,-0.0597199
722,-0.0078,-2.57964,-0.0597199
723,-0.0077,-2.57964,-0.0597199
724,-0.0076,-2.57964,-0.0597199
725,-0.0075,-2.57964,-0.0597199
726,-0.0074,-2.57964,-0.0597199
727,-0.0073,-2.57964,-0.0597199
728,-0.0072,-2.57964,-0.0597199
729,-0.0071,-2.57964,-0.0597199
730,-0.007,-2.57964,-0.0597199
731,-0.0069,-2.57964,-0.0597199
732,-0.0068,-2.57964,-0.0597199
733,-0.0067,-2.57964,-0.0597199
734,-0.0066,-2.57964,-0.0597199
735,-0.0065,-2.57964,-0.0597199
736,-0.0064,-2.57964,-0.0597199
737,-0.0063,-2.57964,-0.0597199
738,-0.0062,-2.57964,-0.0597199
739,-0.0061,-2.57964,-0.0597199
740,-0.006,-2.57964,-0.0597199
741,-0.0059,-2.57964,-0.0597199
742,-0.0058,-2.57964,-0.0597199
743,-0.0057,-2.57964,-0.0597199
744,-0.0056,-2.57964,-0.0597199
745,-0.0055,-2.57964,-0.0597199
746,-0.0054,-2.57964,-0.0597199
747,-0.0053,-2.57964,-0.0597199
748,-0.0052,-2.57964,-0.0597199
749,-0.0051,-2.57964,-0.0597199
750,-0.005,-2.57964,-0.0597199
751,-0.0049,-2.57964,-0.0597199
752,-0.0048,-2.57964,-0.0597199
753,-0.0047,-2.57964,-0.0597199
754,-0.0046,-2.57964,-0.0597199
755,-0.0045,-2.57964,-0.0597199
756,-0.0044,-2.57964,-0.0597199
757,-0.0043,-2.57964,-0.0597199
758,-0.0042,-2.57964,-0.0597199
759,-0.0041,-2.57964,-0.0597199
760,-0.004,-2.57964,-0.0597199
761,-0.0039,-2.57964,-0.0597199
762,-0.0038,-2.57964,-0.0597199
763,-0.0037,-2.57964,-0.0597199
764,-0.0036,-2.57964,-0.0597199
765,-0.0035,-2.57964,-0.0597199
766,-0.0034,-2.57964,-0.0597199
767,-0.0033,-2.57964,-0.0597199
768,-0.0032,-2.57964,-0.0597199
769,-0.0031,-2.57964,-0.0597199
770,-0.003,-2.57964,-0.0597199
771,-0.0029,-2.57964,-0.0597199
772,-0.0028,-2.57964,-0.0597199
773,-0.0027,-2.57964,-0.0597199
774,-0.0026,-2.57964,-0.0597199
775,-0.0025,-2.57964,-0.0597199
776,-0.0024,-2.57964,-0.0597199
777,-0.0023,-2.57964,-0.0597199
778,-0.0022,-2.57964,-0.0597199
779,-0.0021,-2.57964,-0.0597199
780,-0.002,-2.57964,-0.0597199
781,-0.0019,-2.57964,-0.0597199
782,-0.0018,-2.57964,-0.0597199
783,-0.0017,-2.57964,-0.0597199
784,-0.0016,-2.57964,-0.0597199
785,-0.0015,-2.57964,-0.0597199
786,-0.0014,-2.57964,-0.0597199
787,-0.0013,-2.57964,-0.0597199
788,-0.0012,-2.57964,-0.0597199
789,-0.0011,-2.57964,-0.0597199
790,-0.001,-2.57964,-0.0597199
791,-0.0009,-2.57964,-0.0597199
792,-0.0008,-2.57964,-0.0597199
793,-0.0007,-2.57964,-0.0597199
794,-0.0006,-2.57964,-0.0597199
795,-0.0005,-2.57964,-0.0597199
796,-0.0004,-2.57964,-0.0597199
797,-0.0003,-2.57964,-0.0597199
798,-0.0002,-2.57964,-0.0597199
799,-0.0001,-2.57964,-0.0597199
800,0,-2.57964,-0.0422899
801,0.0001,-2.52735,-0.0248599
802,0.0002,-1.34211,1.14295
803,0.0003,2.71908,3.47856
804,0.0004,2.37048,1.85758
805,0.0005,2.38791,1.10809
806,0.0006,2.38791,0.672339
807,0.0007,2.38791,0.393459
808,0.0008,2.38791,0.21916
809,0.0009,2.38791,0.11458
810,0.001,2.38791,0.0622899
811,0.0011,2.38791,0.0448599
812,0.0012,2.38791,0.01
813,0.0013,2.38791,0.01
814,0.0014,2.38791,-0.0422899
815,0.0015,2.38791,-0.0422899
816,0.0016,2.38791,-0.0422899
817,0.0017,2.38791,-0.0422899
818,0.0018,2.38791,-0.0422899
819,0.0019,2.38791,-0.0597199
820,0.002,2.38791,-0.0597199
821,0.0021,2.38791,-0.0597199
822,0.0022,2.38791,-0.0597199
823,0.0023,2.38791,-0.0597199
824,0.0024,2.38791,-0.0597199
825,0.0025,2.38791,-0.0597199
826,0.0026,2.38791,-0.0597199
827,0.0027,2.38791,-0.0597199
828,0.0028,2.38791,-0.0597199
829,0.0029,2.38791,-0.0597199
830,0.003,2.38791,-0.0597199
831,0.0031,2.38791,-0.0597199
832,0.0032,2.38791,-0.0597199
833,0.0033,2.38791,-0.0597199
834,0.0034,2.38791,-0.0597199
835,0.0035,2.38791,-0.0597199
836,0.0036,2.38791,-0.0597199
837,0.0037,2.38791,-0.0597199
838,0.0038,2.38791,-0.0597199
839,0.0039,2.38791,-0.0597199
840,0.004,2.38791,-0.0597199
841,0.0041,2.38791,-0.0597199
842,0.0042,2.38791,-0.0597199
843,0.0043,2.38791,-0.0597199
844,0.0044,2.40534,-0.0597199
845,0.0045,2.40534,-0.0597199
846,0.0046,2.40534,-0.0597199
847,0.0047,2.40534,-0.0597199
848,0.0048,2.42277,-0.0597199
849,0.0049,2.38791,-0.0597199
850,0.005,2.40534,-0.0597199
851,0.0051,2.40534,-0.0597199
852,0.0052,2.40534,-0.0597199
853,0.0053,2.40534,-0.0597199
854,0.0054,2.40534,-0.0597199
855,0.0055,2.40534,-0.0597199
856,0.0056,2.40534,-0.0597199
857,0.0057,2.40534,-0.0597199
858,0.0058,2.40534,-0.0597199
859,0.0059,2.40534,-0.0597199
860,0.006,2.40534,-0.0597199
861,0.0061,2.40534,-0.0597199
862,0.0062,2.40534,-0.0597199
863,0.0063,2.40534,-0.0597199
864,0.0064,2.40534,-0.0597199
865,0.0065,2.40534,-0.0597199
866,0.0066,2.40534,-0.0597199
867,0.0067,2.40534,-0.0597199
868,0.0068,2.40534,-0.0597199
869,0.0069,2.40534,-0.0597199
870,0.007,2.40534,-0.0597199
871,0.0071,2.40534,-0.0597199
872,0.0072,2.40534,-0.0597199
873,0.0073,2.40534,-0.0597199
874,0.0074,2.40534,-0.0597199
875,0.0075,2.40534,-0.0597199
876,0.0076,2.40534,-0.0597199
877,0.0077,2.40534,-0.0597199
878,0.0078,2.40534,-0.0597199
879,0.0079,2.40534,-0.0597199
880,0.008,2.40534,-0.0597199
881,0.0081,2.40534,-0.0597199
882,0.0082,2.40534,-0.0597199
883,0.0083,2.40534,-0.0597199
884,0.0084,2.40534,-0.0597199
885,0.0085,2.40534,-0.0597199
886,0.0086,2.40534,-0.0597199
887,0.0087,2.40534,-0.0597199
888,0.0088,2.40534,-0.0597199
889,0.0089,2.40534,-0.0597199
890,0.009,2.40534,-0.0597199
891,0.0091,2.40534,-0.0597199
892,0.0092,2.40534,-0.0597199
893,0.0093,2.40534,-0.0597199
894,0.0094,2.40534,-0.0597199
895,0.0095,2.40534,-0.0597199
896,0.0096,2.40534,-0.0597199
897,0.0097,2.40534,-0.0597199
898,0.0098,2.40534,-0.0597199
899,0.0099,2.40534,-0.0597199
900,0.01,2.40534,-0.0597199
901,0.0101,2.40534,-0.0597199
902,0.0102,2.40534,-0.0597199
903,0.0103,2.40534,-0.0597199
904,0.0104,2.40534,-0.0597199
905,0.0105,2.40534,-0.0597199
906,0.0106,2.40534,-0.0597199
907,0.0107,2.40534,-0.0597199
908,0.0108,2.40534,-0.0597199
909,0.0109,2.40534,-0.0597199
910,0.011,2.40534,-0.0597199
911,0.0111,2.40534,-0.0597199
912,0.0112,2.40534,-0.0597199
913,0.0113,2.40534,-0.0597199
914,0.0114,2.40534,-0.0597199
915,0.0115,2.40534,-0.0597199
916,0.0116,2.40534,-0.0597199
917,0.0117,2.40534,-0.0597199
918,0.0118,2.40534,-0.0597199
919,0.0119,2.40534,-0.0597199
920,0.012,2.40534,-0.0597199
921,0.0121,2.40534,-0.0597199
922,0.0122,2.40534,-0.0597199
923,0.0123,2.40534,-0.0597199
924,0.0124,2.40534,-0.0597199
925,0.0125,2.40534,-0.0597199
926,0.0126,2.40534,-0.0597199
927,0.0127,2.40534,-0.0597199
928,0.0128,2.40534,-0.0597199
929,0.0129,2.40534,-0.0597199
930,0.013,2.40534,-0.0597199
931,0.0131,2.40534,-0.0597199
932,0.0132,2.40534,-0.0597199
933,0.0133,2.40534,-0.0597199
934,0.0134,2.40534,-0.0597199
935,0.0135,2.40534,-0.0597199
936,0.0136,2.40534,-0.0597199
937,0.0137,2.40534,-0.0597199
938,0.0138,2.40534,-0.0597199
939,0.0139,2.40534,-0.0597199
940,0.014,2.40534,-0.0597199
941,0.0141,2.40534,-0.0597199
942,0.0142,2.40534,-0.0597199
943,0.0143,2.40534,-0.0597199
944,0.0144,2.40534,-0.0597199
945,0.0145,2.40534,-0.0597199
946,0.0146,2.40534,-0.0597199
947,0.0147,2.40534,-0.0597199
948,0.0148,2.40534,-0.0597199
949,0.0149,2.40534,-0.0597199
950,0.015,2.40534,-0.0597199
951,0.0151,2.40534,-0.0597199
952,0.0152,2.40534,-0.0597199
953,0.0153,2.40534,-0.0597199
954,0.0154,2.40534,-0.0597199
955,0.0155,2.40534,-0.0597199
956,0.0156,2.40534,-0.0597199
957,0.0157,2.40534,-0.0597199
958,0.0158,2.40534,-0.0597199
959,0.0159,2.40534,-0.0597199
960,0.016,2.40534,-0.0597199
961,0.0161,2.40534,-0.0597199
962,0.0162,2.40534,-0.0597199
963,0.0163,2.40534,-0.0597199
964,0.0164,2.40534,-0.0597199
965,0.0165,2.40534,-0.0597199
966,0.0166,2.40534,-0.0597199
967,0.0167,2.40534,-0.0597199
968,0.0168,2.40534,-0.0597199
969,0.0169,2.40534,-0.0597199
970,0.017,2.40534,-0.0597199
971,0.0171,2.40534,-0.0597199
972,0.0172,2.40534,-0.0597199
973,0.0173,2.40534,-0.0597199
974,0.0174,2.40534,-0.0597199
975,0.0175,2.40534,-0.0597199
976,0.0176,2.40534,-0.0597199
977,0.0177,2.40534,-0.0597199
978,0.0178,2.40534,-0.0597199
979,0.0179,2.40534,-0.0597199
980,0.018,2.40534,-0.0597199
981,0.0181,2.40534,-0.0597199
982,0.0182,2.40534,-0.0597199
983,0.0183,2.40534,-0.0597199
984,0.0184,2.40534,-0.0597199
985,0.0185,2.40534,-0.0597199
986,0.0186,2.40534,-0.0597199
987,0.0187,2.40534,-0.0597199
988,0.0188,2.40534,-0.0597199
989,0.0189,2.40534,-0.0597199
990,0.019,2.40534,-0.0597199
991,0.0191,2.40534,-0.0597199
992,0.0192,2.40534,-0.0597199
993,0.0193,2.40534,-0.0597199
994,0.0194,2.40534,-0.0597199
995,0.0195,2.40534,-0.0597199
996,0.0196,2.40534,-0.0597199
997,0.0197,2.40534,-0.0597199
998,0.0198,2.40534,-0.0597199
999,0.0199,2.40534,-0.0597199
1000,0.02,2.40534,-0.0597199
1001,0.0201,2.40534,-0.0597199
1002,0.0202,2.40534,-0.0597199
1003,0.0203,2.40534,-0.0597199
1004,0.0204,2.40534,-0.0597199
1005,0.0205,2.40534,-0.0597199
1006,0.0206,2.40534,-0.0597199
1007,0.0207,2.40534,-0.0597199
1008,0.0208,2.40534,-0.0597199
1009,0.0209,2.40534,-0.0597199
1010,0.021,2.40534,-0.0597199
1011,0.0211,2.40534,-0.0597199
1012,0.0212,2.40534,-0.0597199
1013,0.0213,2.40534,-0.0597199
1014,0.0214,2.40534,-0.0597199
1015,0.0215,2.40534,-0.0597199
1016,0.0216,2.40534,-0.0597199
1017,0.0217,2.40534,-0.0597199
1018,0.0218,2.40534,-0.0597199
1019,0.0219,2.40534,-0.0597199
1020,0.022,2.40534,-0.0597199
1021,0.0221,2.40534,-0.0597199
1022,0.0222,2.40534,-0.0597199
1023,0.0223,2.40534,-0.0597199
1024,0.0224,2.40534,-0.0597199
1025,0.0225,2.40534,-0.0597199
1026,0.0226,2.40534,-0.0597199
1027,0.0227,2.40534,-0.0597199
1028,0.0228,2.40534,-0.0597199
1029,0.0229,2.40534,-0.0597199
1030,0.023,2.40534,-0.0597199
1031,0.0231,2.40534,-0.0597199
1032,0.0232,2.40534,-0.0597199
1033,0.0233,2.40534,-0.0597199
1034,0.0234,2.40534,-0.0597199
1035,0.0235,2.40534,-0.0597199
1036,0.0236,2.40534,-0.0597199
1037,0.0237,2.40534,-0.0597199
1038,0.0238,2.40534,-0.0597199
1039,0.0239,2.40534,-0.0597199
1040,0.024,2.40534,-0.0597199
1041,0.0241,2.40534,-0.0597199
1042,0.0242,2.40534,-0.0597199
1043,0.0243,2.40534,-0.0597199
1044,0.0244,2.40534,-0.0597199
1045,0.0245,2.40534,-0.0597199
1046,0.0246,2.40534,-0.0597199
1047,0.0247,2.40534,-0.0597199
1048,0.0248,2.40534,-0.0597199
1049,0.0249,2.40534,-0.0597199
1050,0.025,2.40534,-0.0597199
1051,0.0251,2.35305,-0.0771499
1052,0.0252,1.18524,-1.2101
1053,0.0253,-2.87595,-3.58057
1054,0.0254,-2.54478,-1.94216
1055,0.0255,-2.56221,-1.2101
1056,0.0256,-2.56221,-0.722059
1057,0.0257,-2.56221,-0.460609
1058,0.0258,-2.56221,-0.321169
1059,0.0259,-2.56221,-0.19916
1060,0.026,-2.56221,-0.14687
1061,0.0261,-2.56221,-0.11201
1062,0.0262,-2.56221,-0.0945798
1063,0.0263,-2.56221,-0.0597199
1064,0.0264,-2.56221,-0.0597199
1065,0.0265,-2.56221,-0.0597199
1066,0.0266,-2.56221,-0.0597199
1067,0.0267,-2.56221,-0.0597199
1068,0.0268,-2.56221,-0.0597199
1069,0.0269,-2.56221,-0.0597199
1070,0.027,-2.56221,-0.0597199
1071,0.0271,-2.56221,-0.0597199
1072,0.0272,-2.56221,-0.0597199
1073,0.0273,-2.56221,-0.0597199
1074,0.0274,-2.56221,-0.0597199
1075,0.0275,-2.56221,-0.0597199
1076,0.0276,-2.56221,-0.0597199
1077,0.0277,-2.56221,-0.0597199
1078,0.0278,-2.56221,-0.0597199
1079,0.0279,-2.56221,-0.0597199
1080,0.028,-2.56221,-0.0597199
1081,0.0281,-2.56221,-0.0597199
1082,0.0282,-2.57964,-0.0597199
1083,0.0283,-2.57964,-0.0597199
1084,0.0284,-2.56221,-0.0597199
1085,0.0285,-2.59707,-0.0597199
1086,0.0286,-2.56221,-0.0597199
1087,0.0287,-2.56221,-0.0597199
1088,0.0288,-2.56221,-0.0597199
1089,0.0289,-2.56221,-0.0597199
1090,0.029,-2.56221,-0.0597199
1091,0.0291,-2.56221,-0.0597199
1092,0.0292,-2.59707,-0.0597199
1093,0.0293,-2.57964,-0.0597199
1094,0.0294,-2.57964,-0.0597199
1095,0.0295,-2.57964,-0.0597199
1096,0.0296,-2.57964,-0.0597199
1097,0.0297,-2.57964,-0.0597199
1098,0.0298,-2.57964,-0.0597199
1099,0.0299,-2.57964,-0.0597199
1100,0.03,-2.57964,-0.0597199
1101,0.0301,-2.57964,-0.0597199
1102,0.0302,-2.57964,-0.0597199
1103,0.0303,-2.57964,-0.0597199
1104,0.0304,-2.57964,-0.0597199
1105,0.0305,-2.57964,-0.0597199
1106,0.0306,-2.57964,-0.0597199
1107,0.0307,-2.57964,-0.0597199
1108,0.0308,-2.57964,-0.0597199
1109,0.0309,-2.57964,-0.0597199
1110,0.031,-2.57964,-0.0597199
1111,0.0311,-2.57964,-0.0597199
1112,0.0312,-2.57964,-0.0597199
1113,0.0313,-2.57964,-0.0597199
1114,0.0314,-2.57964,-0.0597199
1115,0.0315,-2.57964,-0.0597199
1116,0.0316,-2.57964,-0.0597199
1117,0.0317,-2.57964,-0.0597199
1118,0.0318,-2.57964,-0.0597199
1119,0.0319,-2.57964,-0.0597199
1120,0.032,-2.57964,-0.0597199
1121,0.0321,-2.57964,-0.0597199
1122,0.0322,-2.57964,-0.0597199
1123,0.0323,-2.57964,-0.0597199
1124,0.0324,-2.57964,-0.0597199
1125,0.0325,-2.57964,-0.0597199
1126,0.0326,-2.57964,-0.0597199
1127,0.0327,-2.57964,-0.0597199
1128,0.0328,-2.57964,-0.0597199
1129,0.0329,-2.57964,-0.0597199
1130,0.033,-2.57964,-0.0597199
1131,0.0331,-2.57964,-0.0597199
1132,0.0332,-2.57964,-0.0597199
1133,0.0333,-2.57964,-0.0597199
1134,0.0334,-2.57964,-0.0597199
1135,0.0335,-2.57964,-0.0597199
1136,0.0336,-2.57964,-0.0597199
1137,0.0337,-2.57964,-0.0597199
1138,0.0338,-2.57964,-0.0597199
1139,0.0339,-2.57964,-0.0597199
1140,0.034,-2.57964,-0.0597199
1141,0.0341,-2.57964,-0.0597199
1142,0.0342,-2.57964,-0.0597199
1143,0.0343,-2.57964,-0.0597199
1144,0.0344,-2.57964,-0.0597199
1145,0.0345,-2.57964,-0.0597199
1146,0.0346,-2.57964,-0.0597199
1147,0.0347,-2.57964,-0.0597199
1148,0.0348,-2.57964,-0.0597199
1149,0.0349,-2.57964,-0.0597199
1150,0.035,-2.57964,-0.0597199
1151,0.0351,-2.57964,-0.0597199
1152,0.0352,-2.57964,-0.0597199
1153,0.0353,-2.57964,-0.0597199
1154,0.0354,-2.57964,-0.0597199
1155,0.0355,-2.57964,-0.0597199
1156,0.0356,-2.57964,-0.0597199
1157,0.0357,-2.57964,-0.0597199
1158,0.0358,-2.57964,-0.0597199
1159,0.0359,-2.57964,-0.0597199
1160,0.036,-2.57964,-0.0597199
1161,0.0361,-2.57964,-0.0597199
1162,0.0362,-2.57964,-0.0597199
1163,0.0363,-2.57964,-0.0597199
1164,0.0364,-2.57964,-0.0597199
1165,0.0365,-2.57964,-0.0597199
1166,0.0366,-2.57964,-0.0597199
1167,0.0367,-2.57964,-0.0597199
1168,0.0368,-2.57964,-0.0597199
1169,0.0369,-2.57964,-0.0597199
1170,0.037,-2.57964,-0.0597199
1171,0.0371,-2.57964,-0.0597199
1172,0.0372,-2.57964,-0.0597199
1173,0.0373,-2.57964,-0.0597199
1174,0.0374,-2.57964,-0.0597199
1175,0.0375,-2.57964,-0.0597199
1176,0.0376,-2.57964,-0.0597199
1177,0.0377,-2.57964,-0.0597199
1178,0.0378,-2.57964,-0.0597199
1179,0.0379,-2.57964,-0.0597199
1180,0.038,-2.57964,-0.0597199
1181,0.0381,-2.57964,-0.0597199
1182,0.0382,-2.57964,-0.0597199
1183,0.0383,-2.57964,-0.0597199
1184,0.0384,-2.57964,-0.0597199
1185,0.0385,-2.57964,-0.0597199
1186,0.0386,-2.57964,-0.0597199
1187,0.0387,-2.57964,-0.0597199
1188,0.0388,-2.57964,-0.0597199
1189,0.0389,-2.57964,-0.0597199
1190,0.039,-2.57964,-0.0597199
1191,0.0391,-2.57964,-0.0597199
1192,0.0392,-2.57964,-0.0597199
1193,0.0393,-2.57964,-0.0597199
1194,0.0394,-2.57964,-0.0597199
1195,0.0395,-2.57964,-0.0597199
1196,0.0396,-2.57964,-0.0597199
1197,0.0397,-2.57964,-0.0597199
1198,0.0398,-2.57964,-0.0597199
1199,0.0399,-2.57964,-0.0597199
1200,0.04,-2.57964,-0.0597199
1201,0.0401,-2.57964,-0.0597199
1202,0.0402,-2.57964,-0.0597199
1203,0.0403,-2.57964,-0.0597199
1204,0.0404,-2.57964,-0.0597199
1205,0.0405,-2.57964,-0.0597199
1206,0.0406,-2.57964,-0.0597199
1207,0.0407,-2.57964,-0.0597199
1208,0.0408,-2.57964,-0.0597199
1209,0.0409,-2.57964,-0.0597199
1210,0.041,-2.57964,-0.0597199
1211,0.0411,-2.57964,-0.0597199
1212,0.0412,-2.57964,-0.0597199
1213,0.0413,-2.57964,-0.0597199
1214,0.0414,-2.57964,-0.0597199
1215,0.0415,-2.57964,-0.0597199
1216,0.0416,-2.57964,-0.0597199
1217,0.0417,-2.57964,-0.0597199
1218,0.0418,-2.57964,-0.0597199
1219,0.0419,-2.57964,-0.0597199
1220,0.042,-2.57964,-0.0597199
1221,0.0421,-2.57964,-0.0597199
1222,0.0422,-2.57964,-0.0597199
1223,0.0423,-2.57964,-0.0597199
1224,0.0424,-2.57964,-0.0597199
1225,0.0425,-2.57964,-0.0597199
1226,0.0426,-2.57964,-0.0597199
1227,0.0427,-2.57964,-0.0597199
1228,0.0428,-2.57964,-0.0597199
1229,0.0429,-2.57964,-0.0597199
1230,0.043,-2.57964,-0.0597199
1231,0.0431,-2.57964,-0.0597199
1232,0.0432,-2.57964,-0.0597199
1233,0.0433,-2.57964,-0.0597199
1234,0.0434,-2.57964,-0.0597199
1235,0.0435,-2.57964,-0.0597199
1236,0.0436,-2.57964,-0.0597199
1237,0.0437,-2.57964,-0.0597199
1238,0.0438,-2.57964,-0.0597199
1239,0.0439,-2.57964,-0.0597199
1240,0.044,-2.57964,-0.0597199
1241,0.0441,-2.57964,-0.0597199
1242,0.0442,-2.57964,-0.0597199
1243,0.0443,-2.57964,-0.0597199
1244,0.0444,-2.57964,-0.0597199
1245,0.0445,-2.57964,-0.0597199
1246,0.0446,-2.57964,-0.0597199
1247,0.0447,-2.57964,-0.0597199
1248,0.0448,-2.57964,-0.0597199
1249,0.0449,-2.57964,-0.0597199
1250,0.045,-2.57964,-0.0597199
1251,0.0451,-2.57964,-0.0597199
1252,0.0452,-2.57964,-0.0597199
1253,0.0453,-2.57964,-0.0597199
1254,0.0454,-2.57964,-0.0597199
1255,0.0455,-2.57964,-0.0597199
1256,0.0456,-2.57964,-0.0597199
1257,0.0457,-2.57964,-0.0597199
1258,0.0458,-2.57964,-0.0597199
1259,0.0459,-2.57964,-0.0597199
1260,0.046,-2.57964,-0.0597199
1261,0.0461,-2.57964,-0.0597199
1262,0.0462,-2.57964,-0.0597199
1263,0.0463,-2.57964,-0.0597199
1264,0.0464,-2.57964,-0.0597199
1265,0.0465,-2.57964,-0.0597199
1266,0.0466,-2.57964,-0.0597199
1267,0.0467,-2.57964,-0.0597199
1268,0.0468,-2.57964,-0.0597199
1269,0.0469,-2.57964,-0.0597199
1270,0.047,-2.57964,-0.0597199
1271,0.0471,-2.57964,-0.0597199
1272,0.0472,-2.57964,-0.0597199
1273,0.0473,-2.57964,-0.0597199
1274,0.0474,-2.57964,-0.0597199
1275,0.0475,-2.57964,-0.0597199
1276,0.0476,-2.57964,-0.0597199
1277,0.0477,-2.57964,-0.0597199
1278,0.0478,-2.57964,-0.0597199
1279,0.0479,-2.57964,-0.0597199
1280,0.048,-2.57964,-0.0597199
1281,0.0481,-2.57964,-0.0597199
1282,0.0482,-2.57964,-0.0597199
1283,0.0483,-2.57964,-0.0597199
1284,0.0484,-2.57964,-0.0597199
1285,0.0485,-2.57964,-0.0597199
1286,0.0486,-2.57964,-0.0597199
1287,0.0487,-2.57964,-0.0597199
1288,0.0488,-2.57964,-0.0597199
1289,0.0489,-2.57964,-0.0597199
1290,0.049,-2.57964,-0.0597199
1291,0.0491,-2.57964,-0.0597199
1292,0.0492,-2.57964,-0.0597199
1293,0.0493,-2.57964,-0.0597199
1294,0.0494,-2.57964,-0.0597199
1295,0.0495,-2.57964,-0.0597199
1296,0.0496,-2.57964,-0.0597199
1297,0.0497,-2.57964,-0.0597199
1298,0.0498,-2.57964,-0.0597199
1299,0.0499,-2.57964,-0.0597199
1300,0.05,-2.57964,-0.0422899
1301,0.0501,-2.52735,-0.0248599
1302,0.0502,-1.34211,1.14295
1303,0.0503,2.71908,3.47856
1304,0.0504,2.37048,1.85758
1305,0.0505,2.38791,1.12552
1306,0.0506,2.38791,0.654909
1307,0.0507,2.38791,0.393459
1308,0.0508,2.38791,0.21916
1309,0.0509,2.38791,0.11458
1310,0.051,2.38791,0.0622899
1311,0.0511,2.38791,0.0448599
1312,0.0512,2.38791,0.01
1313,0.0513,2.38791,0.01
1314,0.0514,2.38791,-0.0422899
1315,0.0515,2.38791,-0.0422899
1316,0.0516,2.38791,-0.0422899
1317,0.0517,2.38791,-0.0422899
1318,0.0518,2.38791,-0.0422899
1319,0.0519,2.38791,-0.0422899
1320,0.052,2.38791,-0.0597199
1321,0.0521,2.38791,-0.0597199
1322,0.0522,2.38791,-0.0597199
1323,0.0523,2.38791,-0.0597199
1324,0.0524,2.38791,-0.0597199
1325,0.0525,2.38791,-0.0597199
1326,0.0526,2.38791,-0.0597199
1327,0.0527,2.38791,-0.0597199
1328,0.0528,2.38791,-0.0597199
1329,0.0529,2.38791,-0.0597199
1330,0.053,2.38791,-0.0597199
1331,0.0531,2.38791,-0.0597199
1332,0.0532,2.38791,-0.0597199
1333,0.0533,2.38791,-0.0597199
1334,0.0534,2.38791,-0.0597199
1335,0.0535,2.38791,-0.0597199
1336,0.0536,2.38791,-0.0597199
1337,0.0537,2.38791,-0.0597199
1338,0.0538,2.40534,-0.0597199
1339,0.0539,2.40534,-0.0597199
1340,0.054,2.40534,-0.0597199
1341,0.0541,2.40534,-0.0597199
1342,0.0542,2.40534,-0.0597199
1343,0.0543,2.40534,-0.0597199
1344,0.0544,2.40534,-0.0597199
1345,0.0545,2.40534,-0.0597199
1346,0.0546,2.40534,-0.0597199
1347,0.0547,2.40534,-0.0597199
1348,0.0548,2.40534,-0.0597199
1349,0.0549,2.40534,-0.0597199
1350,0.055,2.40534,-0.0597199
1351,0.0551,2.40534,-0.0597199
1352,0.0552,2.40534,-0.0597199
1353,0.0553,2.40534,-0.0597199
1354,0.0554,2.40534,-0.0597199
1355,0.0555,2.40534,-0.0597199
1356,0.0556,2.40534,-0.0597199
1357,0.0557,2.40534,-0.0597199
1358,0.0558,2.40534,-0.0597199
1359,0.0559,2.40534,-0.0597199
1360,0.056,2.40534,-0.0597199
1361,0.0561,2.40534,-0.0597199
1362,0.0562,2.40534,-0.0597199
1363,0.0563,2.40534,-0.0597199
1364,0.0564,2.40534,-0.0597199
1365,0.0565,2.40534,-0.0597199
1366,0.0566,2.40534,-0.0597199
1367,0.0567,2.40534,-0.0597199
1368,0.0568,2.40534,-0.0597199
1369,0.0569,2.40534,-0.0597199
1370,0.057,2.40534,-0.0597199
1371,0.0571,2.40534,-0.0597199
1372,0.0572,2.40534,-0.0597199
1373,0.0573,2.40534,-0.0597199
1374,0.0574,2.40534,-0.0597199
1375,0.0575,2.40534,-0.0597199
1376,0.0576,2.40534,-0.0597199
1377,0.0577,2.40534,-0.0597199
1378,0.0578,2.40534,-0.0597199
1379,0.0579,2.40534,-0.0597199
1380,0.058,2.40534,-0.0597199
1381,0.0581,2.40534,-0.0597199
1382,0.0582,2.40534,-0.0597199
1383,0.0583,2.40534,-0.0597199
1384,0.0584,2.40534,-0.0597199
1385,0.0585,2.40534,-0.0597199
1386,0.0586,2.40534,-0.0597199
1387,0.0587,2.40534,-0.0597199
1388,0.0588,2.40534,-0.0597199
1389,0.0589,2.40534,-0.0597199
1390,0.059,2.40534,-0.0597199
1391,0.0591,2.40534,-0.0597199
1392,0.0592,2.40534,-0.0597199
1393,0.0593,2.40534,-0.0597199
1394,0.0594,2.40534,-0.0597199
1395,0.0595,2.40534,-0.0597199
1396,0.0596,2.40534,-0.0597199
1397,0.0597,2.40534,-0.0597199
1398,0.0598,2.40534,-0.0597199
1399,0.0599,2.40534,-0.0597199
1400,0.06,2.40534,-0.0597199
1401,0.0601,2.40534,-0.0597199
1402,0.0602,2.40534,-0.0597199
1403,0.0603,2.40534,-0.0597199
1404,0.0604,2.40534,-0.0597199
1405,0.0605,2.40534,-0.0597199
1406,0.0606,2.40534,-0.0597199
1407,0.0607,2.40534,-0.0597199
1408,0.0608,2.40534,-0.0597199
1409,0.0609,2.40534,-0.0597199
1410,0.061,2.40534,-0.0597199
1411,0.0611,2.40534,-0.0597199
1412,0.0612,2.40534,-0.0597199
1413,0.0613,2.40534,-0.0597199
1414,0.0614,2.40534,-0.0597199
1415,0.0615,2.40534,-0.0597199
1416,0.0616,2.40534,-0.0597199
1417,0.0617,2.40534,-0.0597199
1418,0.0618,2.40534,-0.0597199
1419,0.0619,2.40534,-0.0597199
1420,0.062,2.40534,-0.0597199
1421,0.0621,2.40534,-0.0597199
1422,0.0622,2.40534,-0.0597199
1423,0.0623,2.40534,-0.0597199
1424,0.0624,2.40534,-0.0597199
1425,0.0625,2.40534,-0.0597199
1426,0.0626,2.40534,-0.0597199
1427,0.0627,2.40534,-0.0597199
1428,0.0628,2.40534,-0.0597199
1429,0.0629,2.40534,-0.0597199
1430,0.063,2.40534,-0.0597199
1431,0.0631,2.40534,-0.0597199
1432,0.0632,2.40534,-0.0597199
1433,0.0633,2.40534,-0.0597199
1434,0.0634,2.40534,-0.0597199
1435,0.0635,2.40534,-0.0597199
1436,0.0636,2.40534,-0.0597199
1437,0.0637,2.40534,-0.0597199
1438,0.0638,2.40534,-0.0597199
1439,0.0639,2.40534,-0.0597199
1440,0.064,2.40534,-0.0597199
1441,0.0641,2.40534,-0.0597199
1442,0.0642,2.40534,-0.0597199
1443,0.0643,2.40534,-0.0597199
1444,0.0644,2.40534,-0.0597199
1445,0.0645,2.40534,-0.0597199
1446,0.0646,2.40534,-0.0597199
1447,0.0647,2.40534,-0.0597199
1448,0.0648,2.40534,-0.0597199
1449,0.0649,2.40534,-0.0597199
1450,0.065,2.40534,-0.0597199
1451,0.0651,2.40534,-0.0597199
1452,0.0652,2.40534,-0.0597199
1453,0.0653,2.40534,-0.0597199
1454,0.0654,2.40534,-0.0597199
1455,0.0655,2.40534,-0.0597199
1456,0.0656,2.40534,-0.0597199
1457,0.0657,2.40534,-0.0597199
1458,0.0658,2.40534,-0.0597199
1459,0.0659,2.40534,-0.0597199
1460,0.066,2.40534,-0.0597199
1461,0.0661,2.40534,-0.0597199
1462,0.0662,2.40534,-0.0597199
1463,0.0663,2.40534,-0.0597199
1464,0.0664,2.40534,-0.0597199
1465,0.0665,2.40534,-0.0597199
1466,0.0666,2.40534,-0.0597199
1467,0.0667,2.40534,-0.0597199
1468,0.0668,2.40534,-0.0597199
1469,0.0669,2.40534,-0.0597199
1470,0.067,2.40534,-0.0597199
1471,0.0671,2.40534,-0.0597199
1472,0.0672,2.40534,-0.0597199
1473,0.0673,2.40534,-0.0597199
1474,0.0674,2.40534,-0.0597199
1475,0.0675,2.40534,-0.0597199
1476,0.0676,2.40534,-0.0597199
1477,0.0677,2.40534,-0.0597199
1478,0.0678,2.40534,-0.0597199
1479,0.0679,2.40534,-0.0597199
1480,0.068,2.40534,-0.0597199
1481,0.0681,2.40534,-0.0597199
1482,0.0682,2.40534,-0.0597199
1483,0.0683,2.40534,-0.0597199
1484,0.0684,2.40534,-0.0597199
1485,0.0685,2.40534,-0.0597199
1486,0.0686,2.40534,-0.0597199
1487,0.0687,2.40534,-0.0597199
1488,0.0688,2.40534,-0.0597199
1489,0.0689,2.40534,-0.0597199
1490,0.069,2.40534,-0.0597199
1491,0.0691,2.40534,-0.0597199
1492,0.0692,2.40534,-0.0597199
1493,0.0693,2.40534,-0.0597199
1494,0.0694,2.40534,-0.0597199
1495,0.0695,2.40534,-0.0597199
1496,0.0696,2.40534,-0.0597199
1497,0.0697,2.40534,-0.0597199
1498,0.0698,2.40534,-0.0597199
1499,0.0699,2.40534,-0.0597199
1500,0.07,2.40534,-0.0597199
1501,0.0701,2.40534,-0.0597199
1502,0.0702,2.40534,-0.0597199
1503,0.0703,2.40534,-0.0597199
1504,0.0704,2.40534,-0.0597199
1505,0.0705,2.40534,-0.0597199
1506,0.0706,2.40534,-0.0597199
1507,0.0707,2.40534,-0.0597199
1508,0.0708,2.40534,-0.0597199
1509,0.0709,2.40534,-0.0597199
1510,0.071,2.40534,-0.0597199
1511,0.0711,2.40534,-0.0597199
1512,0.0712,2.40534,-0.0597199
1513,0.0713,2.40534,-0.0597199
1514,0.0714,2.40534,-0.0597199
1515,0.0715,2.40534,-0.0597199
1516,0.0716,2.40534,-0.0597199
1517,0.0717,2.40534,-0.0597199
1518,0.0718,2.40534,-0.0597199
1519,0.0719,2.40534,-0.0597199
1520,0.072,2.40534,-0.0597199
1521,0.0721,2.40534,-0.0597199
1522,0.0722,2.40534,-0.0597199
1523,0.0723,2.40534,-0.0597199
1524,0.0724,2.40534,-0.0597199
1525,0.0725,2.40534,-0.0597199
1526,0.0726,2.40534,-0.0597199
1527,0.0727,2.40534,-0.0597199
1528,0.0728,2.40534,-0.0597199
1529,0.0729,2.40534,-0.0597199
1530,0.073,2.40534,-0.0597199
1531,0.0731,2.40534,-0.0597199
1532,0.0732,2.40534,-0.0597199
1533,0.0733,2.40534,-0.0597199
1534,0.0734,2.40534,-0.0597199
1535,0.0735,2.40534,-0.0597199
1536,0.0736,2.40534,-0.0597199
1537,0.0737,2.40534,-0.0597199
1538,0.0738,2.40534,-0.0597199
1539,0.0739,2.40534,-0.0597199
1540,0.074,2.40534,-0.0597199
1541,0.0741,2.40534,-0.0597199
1542,0.0742,2.40534,-0.0597199
1543,0.0743,2.40534,-0.0597199
1544,0.0744,2.40534,-0.0597199
1545,0.0745,2.40534,-0.0597199
1546,0.0746,2.40534,-0.0597199
1547,0.0747,2.40534,-0.0597199
1548,0.0748,2.40534,-0.0597199
1549,0.0749,2.40534,-0.0597199
1550,0.075,2.40534,-0.0597199
1551,0.0751,2.35305,-0.0771499
1552,0.0752,1.18524,-1.2101
1553,0.0753,-2.87595,-3.58057
1554,0.0754,-2.54478,-1.94216
1555,0.0755,-2.56221,-1.2101
1556,0.0756,-2.56221,-0.722059
1557,0.0757,-2.56221,-0.460609
1558,0.0758,-2.56221,-0.321169
1559,0.0759,-2.56221,-0.18173
1560,0.076,-2.56221,-0.14687
1561,0.0761,-2.56221,-0.11201
1562,0.0762,-2.56221,-0.0945798
1563,0.0763,-2.56221,-0.0597199
1564,0.0764,-2.56221,-0.0771499
1565,0.0765,-2.56221,-0.0422899
1566,0.0766,-2.56221,-0.0597199
1567,0.0767,-2.56221,-0.0597199
1568,0.0768,-2.56221,-0.0597199
1569,0.0769,-2.56221,-0.0597199
1570,0.077,-2.56221,-0.0597199
1571,0.0771,-2.56221,-0.0597199
1572,0.0772,-2.56221,-0.0597199
1573,0.0773,-2.56221,-0.0597199
1574,0.0774,-2.56221,-0.0597199
1575,0.0775,-2.56221,-0.0597199
1576,0.0776,-2.56221,-0.0597199
1577,0.0777,-2.56221,-0.0597199
1578,0.0778,-2.56221,-0.0597199
1579,0.0779,-2.56221,-0.0597199
1580,0.078,-2.56221,-0.0597199
1581,0.0781,-2.56221,-0.0597199
1582,0.0782,-2.56221,-0.0597199
1583,0.0783,-2.56221,-0.0597199
1584,0.0784,-2.59707,-0.0597199
1585,0.0785,-2.57964,-0.0597199
1586,0.0786,-2.57964,-0.0597199
1587,0.0787,-2.57964,-0.0597199
1588,0.0788,-2.57964,-0.0597199
1589,0.0789,-2.57964,-0.0597199
1590,0.079,-2.57964,-0.0597199
1591,0.0791,-2.57964,-0.0597199
1592,0.0792,-2.57964,-0.0597199
1593,0.0793,-2.57964,-0.0597199
1594,0.0794,-2.57964,-0.0597199
1595,0.0795,-2.57964,-0.0597199
1596,0.0796,-2.57964,-0.0597199
1597,0.0797,-2.57964,-0.0597199
1598,0.0798,-2.57964,-0.0597199
1599,0.0799,-2.57964,-0.0597199
